#Wave		#Intensity
1800.532227	18361.076172
1799.562500	18363.644531
1798.592773	18624.498047
1797.623047	18286.978516
1796.653320	18578.546875
1795.682617	18379.767578
1794.712891	18545.458984
1793.742188	18290.320313
1792.771484	18520.087891
1791.800781	18403.542969
1790.829102	18412.683594
1789.858398	18398.748047
1788.886719	18313.048828
1787.915039	18627.142578
1786.943359	18600.359375
1785.970703	18758.013672
1784.999023	18649.259766
1784.026367	18522.625000
1783.053711	18782.597656
1782.081055	18435.869141
1781.107422	18531.980469
1780.134766	18400.349609
1779.161133	18588.511719
1778.187500	18789.384766
1777.213867	18785.623047
1776.239258	18840.660156
1775.265625	18834.332031
1774.291016	18569.914063
1773.316406	18977.527344
1772.341797	18863.890625
1771.366211	19015.896484
1770.391602	18856.335938
1769.416016	19036.361328
1768.440430	18820.707031
1767.464844	18898.593750
1766.488281	18797.859375
1765.512695	19204.767578
1764.536133	18877.037109
1763.559570	19059.386719
1762.583008	18657.884766
1761.605469	18931.957031
1760.628906	18900.132813
1759.651367	19033.919922
1758.673828	19111.615234
1757.696289	18848.021484
1756.717773	18920.628906
1755.740234	19117.941406
1754.761719	19177.736328
1753.783203	19033.935547
1752.804688	19022.486328
1751.825195	19476.523438
1750.846680	19053.001953
1749.867188	19155.970703
1748.887695	19350.410156
1747.908203	19443.109375
1746.927734	19248.626953
1745.947266	19361.630859
1744.967773	19342.505859
1743.987305	19478.298828
1743.005859	19705.441406
1742.025391	19706.562500
1741.043945	19278.757813
1740.063477	19675.814453
1739.081055	19512.033203
1738.099609	19657.767578
1737.118164	19674.109375
1736.135742	19756.363281
1735.153320	19628.183594
1734.170898	19880.220703
1733.188477	19638.037109
1732.206055	19831.699219
1731.222656	19749.195313
1730.239258	20003.535156
1729.255859	19845.068359
1728.272461	19985.371094
1727.288086	20029.441406
1726.304688	20002.642578
1725.320313	20287.029297
1724.335938	20085.660156
1723.350586	19922.304688
1722.366211	19900.601563
1721.380859	20217.636719
1720.395508	20044.240234
1719.410156	20371.224609
1718.424805	20069.023438
1717.439453	20148.337891
1716.453125	20144.287109
1715.466797	20420.486328
1714.480469	20567.835938
1713.494141	20725.218750
1712.506836	20620.119141
1711.519531	20636.152344
1710.533203	20344.464844
1709.544922	20544.630859
1708.557617	20527.890625
1707.570313	20785.916016
1706.582031	20413.779297
1705.593750	20666.681641
1704.605469	20380.369141
1703.616211	20580.281250
1702.627930	20762.484375
1701.638672	20780.962891
1700.649414	20638.333984
1699.660156	20641.728516
1698.670898	20499.181641
1697.680664	20585.617188
1696.690430	20858.136719
1695.700195	20491.826172
1694.709961	20641.060547
1693.719727	20556.464844
1692.728516	20688.033203
1691.738281	20651.199219
1690.747070	20692.255859
1689.754883	20565.017578
1688.763672	21010.359375
1687.771484	20745.023438
1686.780273	20725.781250
1685.788086	20799.398438
1684.794922	20717.423828
1683.802734	20773.453125
1682.809570	20716.595703
1681.817383	21028.369141
1680.823242	21039.169922
1679.830078	21047.460938
1678.836914	21140.951172
1677.842773	20961.298828
1676.848633	20984.625000
1675.854492	21163.222656
1674.860352	21356.769531
1673.865234	20964.416016
1672.871094	21235.515625
1671.875977	21461.460938
1670.880859	21322.021484
1669.885742	21210.152344
1668.889648	21348.427734
1667.893555	21431.634766
1666.897461	21484.808594
1665.901367	21405.486328
1664.905273	21511.117188
1663.908203	21629.199219
1662.912109	21829.664063
1661.915039	21930.148438
1660.917969	21910.736328
1659.919922	21851.388672
1658.922852	21767.103516
1657.924805	21939.882813
1656.926758	22159.994141
1655.928711	21960.951172
1654.929688	21794.408203
1653.931641	21782.523438
1652.932617	21980.046875
1651.933594	22162.535156
1650.934570	22270.191406
1649.934570	22243.265625
1648.935547	22176.496094
1647.935547	22411.091797
1646.935547	22476.277344
1645.935547	22354.730469
1644.934570	22536.876953
1643.933594	22873.226563
1642.933594	22371.023438
1641.931641	22605.287109
1640.930664	22672.833984
1639.929688	22223.185547
1638.927734	22676.089844
1637.925781	22661.560547
1636.923828	22413.457031
1635.921875	22431.281250
1634.918945	22377.064453
1633.916016	22742.554688
1632.913086	22777.675781
1631.910156	22639.019531
1630.907227	22828.019531
1629.903320	23143.490234
1628.900391	22578.134766
1627.896484	22752.146484
1626.891602	22673.144531
1625.887695	22636.320313
1624.882813	22775.507813
1623.878906	22862.593750
1622.874023	22662.212891
1621.868164	22744.328125
1620.863281	23235.083984
1619.857422	23378.955078
1618.851563	23064.740234
1617.845703	23136.800781
1616.839844	23488.486328
1615.833008	23505.994141
1614.827148	23654.605469
1613.820313	24139.525391
1612.813477	23959.062500
1611.805664	24043.208984
1610.798828	24500.560547
1609.791016	24275.646484
1608.783203	24703.115234
1607.775391	24359.671875
1606.767578	24680.746094
1605.758789	24359.667969
1604.750000	24801.580078
1603.741211	24418.898438
1602.732422	24557.076172
1601.723633	24791.421875
1600.713867	24505.175781
1599.704102	24428.679688
1598.694336	24571.669922
1597.684570	24085.949219
1596.673828	24554.300781
1595.664063	24125.458984
1594.653320	23876.644531
1593.642578	24258.533203
1592.630859	24120.617188
1591.620117	24091.095703
1590.608398	23891.722656
1589.596680	23805.646484
1588.584961	23960.763672
1587.573242	23793.515625
1586.560547	23879.695313
1585.547852	24051.914063
1584.535156	23921.626953
1583.522461	23658.646484
1582.509766	23614.513672
1581.496094	23531.080078
1580.482422	23550.867188
1579.468750	23558.361328
1578.455078	23406.224609
1577.440430	23344.994141
1576.426758	23335.337891
1575.412109	22827.462891
1574.397461	22911.158203
1573.381836	23078.230469
1572.367188	23186.365234
1571.351563	22659.308594
1570.335938	22691.476563
1569.320313	23030.042969
1568.304688	22677.343750
1567.288086	22457.103516
1566.271484	22442.734375
1565.254883	22570.429688
1564.238281	22509.515625
1563.221680	22607.763672
1562.204102	22363.275391
1561.186523	22385.644531
1560.168945	22275.875000
1559.151367	22435.242188
1558.132813	22667.919922
1557.115234	22406.544922
1556.096680	22379.980469
1555.078125	22436.531250
1554.058594	22334.207031
1553.040039	22139.078125
1552.020508	22332.439453
1551.000977	22152.041016
1549.981445	22526.013672
1548.960938	22289.498047
1547.941406	22377.707031
1546.920898	22497.605469
1545.900391	22168.521484
1544.879883	22251.820313
1543.858398	22510.681641
1542.836914	22308.585938
1541.815430	22391.800781
1540.793945	22579.789063
1539.772461	22299.818359
1538.750000	22412.216797
1537.728516	22439.314453
1536.706055	22424.996094
1535.683594	22456.945313
1534.660156	21938.708984
1533.637695	21961.007813
1532.614258	21905.425781
1531.590820	22168.576172
1530.566406	22319.726563
1529.542969	22344.355469
1528.518555	22018.849609
1527.494141	21798.005859
1526.469727	22398.730469
1525.445313	22248.363281
1524.420898	22219.529297
1523.395508	22217.421875
1522.370117	22351.306641
1521.344727	21953.417969
1520.318359	22147.984375
1519.292969	22012.406250
1518.266602	22187.468750
1517.240234	22403.699219
1516.213867	22294.828125
1515.186523	22292.699219
1514.159180	22343.908203
1513.131836	22559.925781
1512.104492	22579.550781
1511.077148	22875.386719
1510.049805	22521.875000
1509.021484	22820.021484
1507.993164	22822.621094
1506.964844	22571.013672
1505.935547	22597.867188
1504.907227	22757.808594
1503.877930	22883.810547
1502.848633	22538.048828
1501.818359	22934.916016
1500.789063	22884.283203
1499.758789	22831.251953
1498.728516	22930.515625
1497.698242	23032.154297
1496.667969	23150.662109
1495.636719	22986.498047
1494.606445	23073.568359
1493.575195	23008.482422
1492.542969	23312.777344
1491.511719	23334.556641
1490.479492	23054.687500
1489.448242	23242.978516
1488.415039	23382.947266
1487.382813	23252.755859
1486.350586	23607.251953
1485.317383	23366.177734
1484.284180	23351.753906
1483.250977	23891.548828
1482.216797	23980.613281
1481.183594	23980.519531
1480.149414	24028.587891
1479.115234	24288.507813
1478.081055	24206.503906
1477.045898	24418.144531
1476.011719	24396.298828
1474.976563	24482.716797
1473.941406	24335.792969
1472.905273	24518.373047
1471.870117	24770.599609
1470.833984	24578.031250
1469.797852	25152.171875
1468.761719	25005.253906
1467.725586	25125.044922
1466.688477	25662.687500
1465.651367	25674.234375
1464.614258	25671.371094
1463.577148	25728.513672
1462.539063	26076.003906
1461.501953	26104.246094
1460.463867	26223.628906
1459.424805	26453.283203
1458.386719	26416.683594
1457.347656	26696.544922
1456.309570	26719.830078
1455.270508	26668.816406
1454.230469	26761.572266
1453.191406	27017.173828
1452.151367	26709.875000
1451.111328	27195.238281
1450.071289	27244.714844
1449.031250	27205.613281
1447.990234	27501.533203
1446.950195	27443.251953
1445.909180	27533.292969
1444.867188	27886.351563
1443.826172	27670.222656
1442.784180	27724.300781
1441.742188	27752.064453
1440.700195	27591.048828
1439.658203	27955.669922
1438.616211	27949.925781
1437.573242	27958.509766
1436.530273	27690.140625
1435.487305	27362.203125
1434.443359	26917.460938
1433.400391	26604.132813
1432.356445	26887.312500
1431.312500	26414.316406
1430.267578	26103.664063
1429.223633	25757.376953
1428.178711	25535.173828
1427.133789	25215.357422
1426.088867	25400.777344
1425.043945	25121.613281
1423.998047	24697.281250
1422.952148	24913.644531
1421.906250	24563.328125
1420.860352	24912.916016
1419.813477	24684.101563
1418.767578	24655.230469
1417.720703	24759.576172
1416.673828	24737.832031
1415.625977	24542.525391
1414.579102	24394.841797
1413.531250	24660.763672
1412.483398	24764.994141
1411.435547	24733.761719
1410.386719	24536.273438
1409.337891	24934.929688
1408.290039	24761.220703
1407.240234	24791.728516
1406.191406	24530.306641
1405.141602	24458.814453
1404.092773	25106.162109
1403.042969	24811.626953
1401.992188	24830.226563
1400.942383	24908.089844
1399.891602	25331.992188
1398.840820	25111.113281
1397.790039	25113.044922
1396.739258	25112.607422
1395.687500	25169.007813
1394.635742	25246.697266
1393.583984	25241.490234
1392.532227	25312.029297
1391.480469	25512.689453
1390.427734	25240.074219
1389.375000	25691.406250
1388.322266	25239.125000
1387.269531	25160.619141
1386.215820	25290.175781
1385.162109	25339.320313
1384.108398	25334.091797
1383.054688	25035.908203
1382.000977	25222.068359
1380.946289	25030.298828
1379.891602	24796.107422
1378.836914	24916.101563
1377.782227	25132.808594
1376.726563	25068.628906
1375.670898	25110.636719
1374.615234	24926.195313
1373.559570	24935.195313
1372.502930	25132.806641
1371.447266	24962.613281
1370.390625	25002.234375
1369.333984	24883.972656
1368.276367	24499.558594
1367.219727	25050.333984
1366.162109	25026.320313
1365.104492	24616.216797
1364.046875	25190.158203
1362.988281	25003.750000
1361.929688	24709.187500
1360.871094	24920.492188
1359.812500	24992.951172
1358.753906	24924.298828
1357.694336	24888.583984
1356.634766	24918.695313
1355.575195	24619.804688
1354.515625	25056.402344
1353.456055	24590.832031
1352.395508	24837.029297
1351.334961	24782.583984
1350.274414	25005.162109
1349.212891	24636.207031
1348.152344	24640.496094
1347.090820	24762.082031
1346.029297	24832.013672
1344.966797	24672.103516
1343.905273	24739.677734
1342.842773	24408.732422
1341.780273	24731.781250
1340.717773	24569.673828
1339.655273	25197.091797
1338.591797	24606.343750
1337.528320	24652.765625
1336.464844	24706.189453
1335.401367	24850.875000
1334.336914	24944.015625
1333.272461	24934.169922
1332.208008	24865.845703
1331.143555	25040.777344
1330.079102	25016.882813
1329.013672	24745.195313
1327.948242	24983.144531
1326.882813	24917.210938
1325.817383	25190.066406
1324.750977	24839.144531
1323.684570	25165.613281
1322.618164	25347.185547
1321.551758	25598.710938
1320.484375	25707.763672
1319.417969	25627.765625
1318.350586	25965.388672
1317.282227	26071.960938
1316.214844	25882.330078
1315.146484	25872.298828
1314.079102	26155.974609
1313.009766	26679.572266
1311.941406	26112.501953
1310.873047	26477.480469
1309.803711	26176.197266
1308.734375	26557.306641
1307.665039	26419.095703
1306.594727	26576.542969
1305.525391	26524.484375
1304.455078	26695.802734
1303.384766	26587.910156
1302.313477	26417.267578
1301.243164	26574.544922
1300.171875	26571.351563
1299.100586	26807.552734
1298.028320	26211.755859
1296.957031	26396.818359
1295.884766	25850.128906
1294.812500	25828.503906
1293.740234	25760.449219
1292.667969	25506.714844
1291.594727	25726.537109
1290.521484	25714.228516
1289.448242	25829.519531
1288.375000	25719.777344
1287.300781	25614.718750
1286.226563	25263.947266
1285.152344	25309.689453
1284.078125	25197.824219
1283.003906	25310.751953
1281.928711	24909.367188
1280.853516	25149.683594
1279.778320	25030.992188
1278.703125	24951.705078
1277.626953	24900.222656
1276.550781	25066.285156
1275.474609	25204.515625
1274.398438	24988.775391
1273.321289	25050.642578
1272.245117	24742.535156
1271.167969	25003.230469
1270.089844	25134.388672
1269.012695	25110.671875
1267.934570	24874.419922
1266.856445	24975.490234
1265.778320	24974.908203
1264.700195	24965.091797
1263.621094	24913.726563
1262.541992	25086.242188
1261.462891	25143.316406
1260.383789	25403.371094
1259.304688	24987.539063
1258.224609	25166.808594
1257.144531	25412.857422
1256.064453	25368.378906
1254.983398	25439.140625
1253.902344	25546.736328
1252.822266	25790.191406
1251.740234	25957.544922
1250.659180	25735.693359
1249.578125	25769.464844
1248.496094	25837.742188
1247.414063	25721.902344
1246.331055	25718.839844
1245.249023	25835.384766
1244.166016	25786.304688
1243.083008	25824.611328
1242.000000	25646.820313
1240.916016	25393.261719
1239.833008	25773.988281
1238.749023	25860.501953
1237.665039	25864.292969
1236.580078	26019.638672
1235.496094	25722.636719
1234.411133	25726.451172
1233.326172	26180.058594
1232.241211	26179.183594
1231.155273	26010.849609
1230.069336	25876.986328
1228.983398	26270.560547
1227.897461	25783.652344
1226.811523	26179.371094
1225.724609	26004.330078
1224.637695	25565.888672
1223.550781	25780.445313
1222.463867	25809.412109
1221.375977	25451.417969
1220.288086	25677.304688
1219.200195	25530.042969
1218.112305	25030.458984
1217.023438	24965.748047
1215.934570	25223.562500
1214.845703	25318.908203
1213.756836	25242.742188
1212.667969	24878.595703
1211.578125	24976.232422
1210.488281	24644.279297
1209.398438	24780.757813
1208.307617	24238.863281
1207.217773	24571.738281
1206.126953	24628.238281
1205.036133	24488.421875
1203.944336	24462.761719
1202.853516	24569.437500
1201.761719	24587.107422
1200.669922	24315.140625
1199.578125	24816.226563
1198.485352	24612.708984
1197.392578	24634.908203
1196.299805	24522.656250
1195.207031	25367.275391
1194.114258	25730.949219
1193.020508	25925.957031
1191.926758	26198.289063
1190.833008	26424.980469
1189.739258	26565.097656
1188.644531	26941.783203
1187.549805	26742.781250
1186.455078	26757.650391
1185.360352	26770.236328
1184.264648	26564.568359
1183.168945	26631.736328
1182.073242	26146.671875
1180.977539	26166.185547
1179.880859	26049.398438
1178.785156	25871.343750
1177.688477	25793.263672
1176.590820	25826.449219
1175.494141	25929.974609
1174.396484	25566.019531
1173.298828	25535.705078
1172.201172	25357.970703
1171.103516	25184.843750
1170.004883	24721.587891
1168.906250	24609.867188
1167.807617	24747.478516
1166.708984	23956.062500
1165.609375	24037.119141
1164.510742	24190.613281
1163.411133	23972.689453
1162.310547	24203.101563
1161.210938	24109.750000
1160.110352	24242.728516
1159.009766	24095.105469
1157.909180	24085.525391
1156.807617	24032.976563
1155.707031	24046.019531
1154.605469	24056.794922
1153.502930	24126.326172
1152.401367	24067.029297
1151.298828	23890.281250
1150.197266	24178.888672
1149.093750	24119.613281
1147.991211	24256.783203
1146.887695	24195.255859
1145.785156	24190.171875
1144.681641	24374.617188
1143.577148	24421.378906
1142.473633	24111.777344
1141.369141	24253.275391
1140.264648	24545.755859
1139.160156	24675.832031
1138.054688	24695.431641
1136.949219	24620.398438
1135.843750	24977.873047
1134.738281	24983.880859
1133.632813	25111.468750
1132.526367	25200.732422
1131.419922	25240.443359
1130.313477	25239.634766
1129.207031	25340.058594
1128.099609	25588.884766
1126.992188	25826.361328
1125.884766	25766.968750
1124.777344	25891.916016
1123.668945	25601.062500
1122.560547	26045.037109
1121.452148	25999.121094
1120.343750	26397.904297
1119.234375	26432.763672
1118.125000	26543.933594
1117.015625	26540.589844
1115.906250	26743.691406
1114.796875	26980.357422
1113.686523	26790.746094
1112.576172	26883.775391
1111.465820	27109.048828
1110.354492	26843.310547
1109.243164	27003.500000
1108.132813	26612.414063
1107.020508	26606.806641
1105.909180	26332.433594
1104.796875	26255.228516
1103.684570	25891.490234
1102.572266	25836.789063
1101.459961	25965.613281
1100.346680	25615.585938
1099.233398	25451.365234
1098.120117	25676.349609
1097.006836	25492.058594
1095.892578	25403.970703
1094.778320	25376.263672
1093.664063	25328.455078
1092.549805	25410.240234
1091.435547	25590.267578
1090.320313	25502.242188
1089.205078	25106.148438
1088.088867	25415.587891
1086.973633	25265.164063
1085.857422	25460.642578
1084.741211	25497.652344
1083.625000	25333.919922
1082.507813	25442.292969
1081.391602	25619.728516
1080.274414	25351.310547
1079.157227	25123.117188
1078.039063	25068.796875
1076.920898	25415.443359
1075.802734	25020.349609
1074.684570	25291.154297
1073.566406	25466.123047
1072.447266	25220.378906
1071.328125	24827.878906
1070.208984	25100.714844
1069.089844	24890.787109
1067.969727	25027.843750
1066.849609	24866.927734
1065.729492	25281.773438
1064.609375	25091.978516
1063.488281	25028.906250
1062.367188	25161.339844
1061.246094	24973.906250
1060.125000	25135.156250
1059.002930	25085.443359
1057.881836	24822.677734
1056.759766	24994.947266
1055.636719	24974.130859
1054.514648	24798.056641
1053.391602	25052.269531
1052.268555	25075.791016
1051.145508	24844.386719
1050.021484	24828.046875
1048.897461	24988.972656
1047.773438	24717.851563
1046.649414	24903.091797
1045.525391	25114.824219
1044.400391	25091.794922
1043.275391	24674.794922
1042.150391	24800.130859
1041.024414	24867.890625
1039.899414	24630.365234
1038.773438	24578.707031
1037.646484	24659.732422
1036.520508	24809.248047
1035.393555	24770.841797
1034.266602	25006.443359
1033.139648	25191.132813
1032.012695	25075.359375
1030.884766	24875.720703
1029.756836	25091.226563
1028.628906	24960.091797
1027.500977	24893.009766
1026.372070	24777.414063
1025.243164	25094.220703
1024.114258	25027.148438
1022.985352	25087.990234
1021.855469	25120.146484
1020.725586	24740.134766
1019.595703	25120.509766
1018.465820	24890.466797
1017.334961	25266.238281
1016.204102	25190.410156
1015.073242	25277.535156
1013.942383	25424.056641
1012.810547	25673.947266
1011.678711	25532.082031
1010.546875	25704.847656
1009.415039	25596.021484
1008.282227	25676.343750
1007.150391	26132.560547
1006.017578	26109.427734
1004.883789	26624.687500
1003.750977	26779.416016
1002.617188	26595.808594
1001.483398	26724.121094
1000.349609	26872.136719
999.214844	26851.062500
998.080078	26610.527344
996.945313	26172.613281
995.810547	26493.919922
994.674805	25902.683594
993.540039	25833.587891
992.404297	25891.675781
991.267578	25653.832031
990.131836	25786.437500
988.995117	25721.800781
987.858398	25527.949219
986.721680	25559.751953
985.583984	25370.394531
984.446289	25161.414063
983.308594	25212.966797
982.170898	25260.119141
981.033203	25095.044922
979.894531	24997.841797
978.755859	24780.408203
977.617188	24985.019531
976.477539	24861.667969
975.337891	24917.568359
974.198242	24682.849609
973.058594	24705.994141
971.918945	24547.857422
970.778320	24719.496094
969.637695	24517.757813
968.497070	24346.662109
967.355469	24773.537109
966.214844	24648.269531
965.073242	24494.701172
963.930664	24674.843750
962.789063	24479.906250
961.646484	24701.390625
960.503906	24550.113281
959.361328	24586.279297
958.217773	24504.796875
957.075195	24338.408203
955.931641	24633.712891
954.788086	24900.587891
953.643555	24462.148438
952.499023	24809.457031
951.354492	25017.378906
950.209961	24909.812500
949.065430	24845.785156
947.919922	24744.820313
946.774414	24715.632813
945.628906	25179.792969
944.482422	25250.470703
943.336914	25114.742188
942.190430	25018.164063
941.042969	24938.998047
939.896484	25222.416016
938.749023	25004.324219
937.601563	25268.074219
936.454102	25440.587891
935.305664	25116.296875
934.158203	25442.740234
933.009766	25441.644531
931.861328	25492.574219
930.711914	25300.746094
929.562500	25343.011719
928.413086	25292.107422
927.263672	25299.701172
926.114258	25380.914063
924.963867	25204.460938
923.813477	25482.625000
922.663086	25275.925781
921.511719	25279.179688
920.360352	25353.812500
919.208984	25395.972656
918.057617	25310.544922
916.906250	25290.001953
915.753906	25388.335938
914.601563	25114.970703
913.449219	25403.406250
912.295898	25253.263672
911.142578	25511.312500
909.989258	25343.935547
908.835938	25569.472656
907.682617	25460.417969
906.528320	25172.332031
905.374023	25184.203125
904.218750	25206.851563
903.064453	25453.732422
901.909180	25452.597656
900.753906	25673.453125
899.598633	25454.632813
898.442383	25520.277344
897.286133	25351.121094
896.129883	25952.957031
894.973633	25630.916016
893.817383	26219.515625
892.660156	25837.296875
891.502930	25947.947266
890.344727	26116.630859
889.187500	26042.216797
888.029297	26045.238281
886.871094	26205.189453
885.711914	25948.109375
884.553711	26112.306641
883.394531	25964.919922
882.235352	26032.384766
881.076172	25801.326172
879.916016	26338.978516
878.755859	25835.343750
877.595703	26175.318359
876.435547	26096.755859
875.274414	25829.457031
874.113281	26098.435547
872.952148	25728.324219
871.791016	26265.173828
870.628906	26045.210938
869.466797	26187.480469
868.304688	26190.431641
867.141602	25816.404297
865.979492	26018.585938
864.816406	26053.681641
863.653320	25497.976563
862.489258	25969.738281
861.326172	25964.166016
860.162109	26140.419922
858.997070	25702.792969
857.833008	25729.347656
856.667969	25548.527344
855.502930	25500.294922
854.337891	25590.976563
853.171875	25660.255859
852.006836	25468.917969
850.840820	25762.414063
849.673828	25744.070313
848.507813	25625.408203
847.340820	26138.488281
846.173828	25834.162109
845.006836	26186.986328
843.838867	26241.074219
842.671875	26231.169922
841.503906	26349.177734
840.334961	26285.966797
839.166992	26546.677734
837.998047	26340.708984
836.829102	26575.732422
835.659180	26261.238281
834.490234	26383.333984
833.320313	26473.447266
832.150391	26378.369141
830.979492	26464.185547
829.809570	26439.347656
828.638672	26837.746094
827.467773	26417.339844
826.295898	26751.792969
825.125000	26784.292969
823.953125	26725.404297
822.781250	26369.111328
821.608398	26611.947266
820.435547	26833.439453
819.263672	26638.705078
818.089844	26340.042969
816.916992	26429.871094
815.743164	26127.134766
814.569336	25926.349609
813.395508	26028.927734
812.220703	26315.931641
811.046875	26320.861328
809.872070	26054.498047
808.696289	25786.126953
807.521484	25829.296875
806.345703	25963.525391
805.169922	25612.755859
803.994141	25537.367188
802.817383	25466.244141
801.640625	25128.501953
800.463867	25065.957031
799.287109	24726.328125
798.109375	24695.617188
796.931641	24662.802734
795.753906	24517.960938
794.576172	24442.925781
793.397461	24589.794922
792.218750	24402.804688
791.040039	24526.382813
789.860352	24455.626953
788.681641	24268.783203
787.501953	24624.490234
786.322266	24401.810547
785.141602	24421.863281
783.960938	24764.646484
782.780273	24508.332031
781.599609	24739.195313
780.418945	24731.746094
779.237305	24648.423828
778.055664	24457.671875
776.873047	24894.794922
775.691406	24902.054688
774.508789	24978.800781
773.326172	24973.404297
772.142578	24578.607422
770.959961	24977.345703
769.776367	24687.912109
768.592773	24573.195313
767.408203	24910.681641
766.224609	24789.654297
765.040039	24513.119141
763.855469	24661.244141
762.669922	24510.925781
761.484375	24652.681641
760.298828	24515.029297
759.113281	24583.222656
757.927734	24378.460938
756.741211	24392.080078
755.554688	24728.859375
754.368164	24522.097656
753.180664	24648.939453
751.993164	24423.406250
750.805664	24416.023438
749.618164	24175.960938
748.429688	24503.958984
747.241211	24574.087891
746.052734	24258.724609
744.864258	24475.482422
743.674805	24570.695313
742.485352	24439.763672
741.295898	24386.330078
740.106445	24579.847656
738.916016	24559.878906
737.725586	24410.230469
736.535156	24233.460938
735.343750	24192.666016
734.152344	24306.574219
732.960938	24593.894531
731.769531	24398.425781
730.577148	24388.958984
729.385742	24358.611328
728.192383	24618.517578
727.000000	24264.546875
725.806641	24397.039063
724.614258	24525.300781
723.419922	24290.492188
722.226563	24391.601563
721.032227	24428.019531
719.837891	24472.759766
718.643555	24327.792969
717.449219	23982.820313
716.253906	24273.482422
715.058594	24257.800781
713.863281	24248.373047
712.666992	24409.685547
711.470703	24173.314453
710.274414	24465.693359
709.078125	24539.455078
707.880859	24623.585938
706.683594	24370.726563
705.486328	24415.341797
704.289063	24383.013672
703.090820	24425.525391
701.892578	24700.769531
700.694336	24865.775391
699.495117	24795.980469
698.296875	24956.736328
697.097656	24870.337891
695.897461	25037.232422
694.698242	25052.546875
693.498047	25040.876953
692.297852	25139.162109
691.097656	25173.105469
689.896484	25287.904297
688.695313	25131.064453
687.494141	25556.728516
686.292969	25482.785156
685.090820	25703.074219
683.888672	25392.992188
682.686523	25646.335938
681.483398	25545.515625
680.280273	25844.251953
679.077148	25602.697266
677.874023	25690.238281
676.670898	25943.232422
675.466797	25761.789063
674.262695	25812.011719
673.057617	25998.656250
671.853516	26348.498047
670.648438	25946.009766
669.443359	25872.183594
668.237305	25924.386719
667.031250	26096.337891
665.825195	26016.328125
664.619141	26200.566406
663.413086	26095.802734
662.206055	26234.546875
660.999023	26131.878906
659.791992	26140.623047
658.583984	26367.925781
657.375977	26667.279297
656.167969	26412.083984
654.959961	26396.025391
653.750977	26402.632813
652.541992	26584.308594
651.333008	26529.091797
650.123047	26778.597656
648.914063	26729.535156
647.704102	27085.894531
646.493164	27205.490234
645.283203	27057.625000
644.072266	27337.583984
642.861328	27561.902344
641.649414	27864.236328
640.438477	27907.482422
639.226563	28308.232422
638.014648	28359.576172
636.801758	27839.925781
635.588867	27936.519531
634.375977	28004.328125
633.163086	27556.927734
631.950195	27764.326172
630.736328	27789.039063
629.522461	27760.408203
628.307617	27850.730469
627.093750	27678.576172
625.878906	27848.816406
624.664063	27490.242188
623.448242	27719.863281
622.233398	28148.083984
621.017578	28023.148438
619.800781	28082.548828
618.584961	28393.716797
617.368164	28064.136719
616.151367	28283.087891
614.934570	28438.523438
613.716797	28098.916016
612.499023	28182.750000
611.281250	28403.521484
610.062500	28419.794922
608.844727	28317.533203
607.625977	28201.013672
606.407227	28450.177734
605.187500	28629.796875
603.967773	28886.921875
602.748047	28758.123047
601.528320	28727.339844
600.307617	28539.457031
599.086914	28906.527344
597.866211	28812.501953
596.645508	28969.322266
595.423828	29077.146484
594.202148	28940.335938
592.980469	29164.265625
591.757813	28937.851563
590.535156	29110.757813
589.312500	29230.640625
588.089844	29059.326172
586.866211	29089.601563
585.642578	29368.140625
584.418945	29599.757813
583.195313	29532.248047
581.970703	29513.574219
580.746094	29419.675781
579.521484	29697.826172
578.295898	29654.734375
577.070313	29386.113281
575.844727	29365.451172
574.619141	29840.375000
573.392578	29921.150391
572.166016	29926.771484
570.939453	29958.773438
569.712891	29751.304688
568.485352	30249.958984
567.257813	30066.855469
566.029297	29741.871094
564.801758	30266.552734
563.573242	30442.347656
562.344727	30176.261719
561.115234	30189.900391
559.886719	30199.482422
558.657227	30452.089844
557.427734	30174.078125
556.197266	30331.429688
554.966797	30427.992188
553.736328	30176.466797
552.505859	30240.648438
551.274414	30452.449219
550.042969	30223.324219
548.811523	30105.490234
547.580078	30177.707031
546.347656	29914.431641
545.115234	29530.046875
543.882813	29784.132813
542.649414	29492.837891
541.416016	29645.861328
540.182617	29249.753906
538.949219	29075.816406
537.714844	29083.548828
536.480469	29345.455078
535.246094	29276.480469
534.010742	29080.501953
532.775391	29309.974609
531.540039	28805.697266
530.304688	28972.658203
529.068359	28909.876953
527.833008	28738.353516
526.595703	28532.671875
525.359375	28478.074219
524.122070	28489.923828
522.884766	28278.388672
521.647461	28376.789063
520.409180	28068.814453
519.170898	28247.656250
517.932617	27974.021484
516.694336	27766.843750
515.455078	28078.271484
514.215820	28005.781250
512.976563	27887.117188
511.736328	27744.404297
510.497070	28019.410156
509.256836	27993.164063
508.015625	28091.365234
506.774414	27972.804688
505.534180	27709.845703
504.291992	28006.611328
503.050781	27833.996094
501.808594	27721.603516
500.566406	27763.599609
499.324219	27907.781250
498.081055	27893.613281
496.837891	27935.539063
495.594727	28039.527344
494.351563	28049.361328
493.107422	27861.011719
491.863281	27786.822266
490.619141	28138.855469
489.374023	27894.593750
488.128906	28122.443359
486.883789	27940.273438
485.638672	28020.072266
484.392578	27927.945313
483.146484	27889.808594
481.900391	28061.460938
480.653320	28059.261719
479.406250	27945.232422
478.159180	28224.562500
476.912109	27637.476563
475.664063	28034.490234
474.416016	28179.931641
473.167969	28241.529297
471.918945	28378.880859
470.669922	28179.208984
469.420898	28188.931641
468.171875	27947.531250
466.921875	27897.521484
465.671875	28094.550781
464.421875	27925.025391
463.171875	28133.904297
461.920898	28119.722656
460.669922	28067.730469
459.417969	28083.414063
458.166992	27838.470703
456.915039	28116.744141
455.663086	28034.960938
454.410156	27750.421875
453.157227	28032.500000
451.904297	27779.878906
450.651367	28101.558594
449.397461	27988.078125
448.144531	28099.054688
446.889648	27854.578125
445.635742	28120.367188
444.380859	27885.912109
443.125977	28088.078125
441.871094	28046.154297
440.615234	27920.947266
439.359375	28083.308594
438.103516	27833.251953
436.847656	28183.847656
435.590820	28032.953125
434.333984	28236.742188
433.076172	28341.404297
431.819336	28224.234375
430.561523	28031.880859
429.303711	28423.519531
428.044922	28169.857422
426.787109	28590.966797
425.528320	28454.080078
424.268555	28410.197266
423.009766	28506.712891
421.750000	28441.091797
420.490234	28247.039063
419.229492	28631.994141
417.968750	28394.523438
416.708008	28743.720703
415.447266	28453.013672
414.185547	28539.484375
412.923828	28835.123047
411.662109	28662.976563
410.400391	28769.066406
409.137695	28581.226563
407.875000	29099.412109
406.612305	28876.091797
405.348633	28948.525391
404.084961	28991.363281
402.821289	28673.644531
401.556641	28698.792969
400.292969	28826.332031
399.028320	28827.806641
397.762695	29236.740234
396.498047	29251.894531
395.232422	29105.701172
393.966797	29203.492188
392.700195	29118.339844
391.433594	29186.585938
390.166992	29362.919922
388.900391	29208.994141
387.632813	29424.537109
386.365234	29382.636719
385.097656	29566.619141
383.830078	29065.218750
382.561523	29145.136719
381.292969	29285.861328
380.023438	29660.033203
378.754883	29596.544922
377.485352	29576.232422
376.214844	29616.716797
374.945313	29678.750000
373.674805	29930.880859
372.404297	29873.271484
371.133789	29784.335938
369.862305	30016.683594
368.590820	30366.425781
367.319336	30530.007813
366.046875	30476.232422
364.774414	30027.152344
363.501953	30564.410156
362.229492	30649.544922
360.956055	30891.101563
359.682617	30917.462891
358.409180	30805.013672
357.134766	31138.226563
355.860352	31400.945313
354.585938	31175.150391
353.310547	31631.097656
352.036133	31639.671875
350.760742	31431.539063
349.484375	31654.851563
348.208984	31358.988281
346.932617	31941.191406
345.656250	32019.894531
344.378906	32106.361328
343.101563	31804.804688
341.824219	32279.171875
340.546875	32420.082031
339.268555	32218.015625
337.990234	32565.351563
336.711914	32341.917969
335.432617	32435.949219
334.153320	32526.044922
332.874023	32715.351563
331.594727	32832.578125
330.314453	32833.035156
329.034180	33064.925781
327.753906	33442.546875
326.472656	33602.269531
325.191406	33695.832031
323.910156	33663.050781
322.628906	33620.566406
321.346680	34222.933594
320.064453	34316.265625
318.782227	34314.425781
317.499023	34506.683594
316.215820	34716.316406
314.932617	34900.628906
313.648438	35263.308594
312.364258	35195.316406
311.080078	35736.132813
309.795898	35652.550781
308.510742	36020.542969
307.225586	36314.742188
305.940430	36422.847656
304.654297	36668.406250
303.368164	36904.167969
302.082031	37286.945313
300.795898	37373.437500
