#Wave	#Intensity
402	48.07168
404	31.45885
406	-67.15879
408	-82.78918
410	-16.43358
412	17.91507
414	39.26545
416	-168.37555
418	-290.00496
420	-382.60297
422	-105.12079
424	-1.47134
426	193.44295
428	543.7198
430	709.4376
432	505.67472
434	342.50954
436	212.02043
438	100.28578
440	229.36277
442	137.29853
444	106.11728
446	91.8295
448	124.43506
450	84.92465
452	-22.72349
454	60.4604
456	84.44833
458	240.20628
460	300.69178
462	174.83836
464	116.57951
466	125.83128
468	-180.50198
470	-198.52847
472	-134.33836
474	-120.00196
476	-31.57613
478	165.89424
480	167.36743
482	306.78513
484	105.07231
486	6.15391
488	-76.05561
490	-129.64242
492	-238.68509
494	-436.2492
496	-407.3765
498	-307.06508
500	-28.27232
502	99.07514
504	143.05344
506	218.72886
508	157.15333
510	46.35696
512	-204.64591
514	-203.84554
516	-152.21173
518	-45.69391
520	139.77372
522	281.26154
524	338.82592
526	249.49514
528	199.29747
530	184.23622
532	78.29477
534	-65.5619
536	-135.37667
538	-113.18585
540	-62.01221
542	-32.8672
544	41.24392
546	177.31919
548	129.35252
550	-36.67992
552	49.18512
554	108.91455
556	45.47036
558	-73.19635
560	-91.13902
562	153.59621
564	144.97233
566	65.93698
568	-126.57672
570	-74.64222
572	23.67965
574	-40.66443
576	-194.73017
578	-300.56923
580	-235.21377
582	-288.6659
584	-115.90421
586	-63.87844
588	-11.52671
590	-70.78078
592	-90.57124
594	5.1784
596	-18.44634
598	-77.36042
600	49.52302
602	116.29858
604	175.05592
606	70.87305
608	187.81048
610	388.92166
612	520.24122
614	425.8038
616	515.64407
618	539.79665
620	421.2962
622	358.17736
624	219.47478
626	212.2231
628	115.43501
630	-81.898
632	39.20398
634	130.72909
636	82.66152
638	-93.0276
640	97.62459
642	47.59026
644	-38.1682
646	-71.69313
648	-147.02309
650	-122.18943
652	-127.20884
654	26.91425
656	-77.81191
658	80.61828
660	84.21817
662	179.99305
664	510.93982
666	584.03733
668	564.26448
670	724.60013
672	915.02317
674	704.51247
676	670.0469
678	491.60534
680	393.16666
682	415.70973
684	107.21343
686	-116.34338
688	-40.99253
690	-70.75426
692	-296.64467
694	-23.6728
696	-32.81803
698	51.94262
700	75.63544
702	179.2815
704	183.89432
706	308.46948
708	307.98417
710	337.41561
712	593.74098
714	770.93749
716	877.98232
718	707.85267
720	924.52574
722	830.97872
724	843.1888
726	608.13319
728	431.78905
730	112.1336
732	31.14401
734	-241.21373
736	-228.97677
738	14.84189
740	258.25211
742	499.26231
744	511.85504
746	368.01289
748	97.71842
750	-176.0458
752	-310.30696
754	-301.07467
756	-354.32749
758	-148.01388
760	-208.04687
762	-108.32468
764	102.27526
766	170.88638
768	268.63184
770	383.61775
772	488.92334
774	632.62784
776	534.81049
778	209.5505
780	137.92712
782	-7.00138
784	34.80949
786	35.4049
788	425.82655
790	581.11262
792	586.30126
794	578.43062
796	422.53888
798	210.6642
800	-71.15528
802	-3.90246
804	33.44688
806	135.91733
808	81.53014
810	-88.70702
812	-75.79464
814	-168.72435
816	-10.48018
818	294.97069
820	538.66215
822	526.62808
824	303.90236
826	279.51886
828	140.51146
830	-77.11391
832	-0.36538
834	62.75664
836	212.25178
838	105.11338
840	107.31357
842	4.81395
844	14.5654
846	115.51834
848	180.62168
850	320.81284
852	61.01114
854	4.13589
856	-41.89965
858	-231.1827
860	-258.79623
862	-170.80013
864	196.7716
866	431.90204
868	598.5546
870	470.69268
872	381.27969
874	393.27902
876	200.65407
878	80.36826
880	262.36491
882	582.57933
884	677.92058
886	675.29771
888	435.6198
890	146.79591
892	-43.26491
894	-163.66826
896	-530.51546
898	-353.89141
900	-78.828
902	308.6783
904	644.63887
906	693.06512
908	793.96844
910	552.36022
912	414.25187
914	138.65478
916	-104.41967
918	99.02606
920	179.99994
922	179.50004
924	-56.49358
926	-236.01879
928	-178.10784
930	-38.76934
932	-48.99413
934	220.23086
936	529.92358
938	431.07997
940	307.69595
942	133.76747
944	-163.70955
946	-8.75256
948	-6.36262
950	-263.53994
952	-231.28408
954	-19.56824
956	219.65749
958	113.44499
960	339.82416
962	473.81359
964	570.43183
966	662.69744
968	429.629
970	182.24506
972	250.5642
974	606.58674
976	762.28798
978	899.6432
980	1155.62768
982	1032.21669
984	1046.38553
986	1043.10946
988	890.36378
990	653.12374
992	833.36463
994	1003.06173
996	942.19031
998	1328.72564
1000	1106.643
1002	923.91765
1004	1132.52487
1006	940.43993
1008	691.63809
1010	796.09462
1012	713.78479
1014	698.68386
1016	772.7671
1018	536.00977
1020	551.38714
1022	599.87446
1024	553.44701
1026	993.08004
1028	1100.74881
1030	826.42858
1032	747.09462
1034	502.72218
1036	497.28652
1038	704.7629
1040	595.12656
1042	863.35278
1044	803.41679
1046	633.29387
1048	-169.04074
1050	-185.61179
1052	-304.42712
1054	-417.47601
1056	-58.7173
1058	171.93192
1060	595.56042
1062	794.23979
1064	961.04162
1066	1039.03749
1068	1182.29899
1070	1075.89769
1072	829.90519
1074	750.39305
1076	665.43287
1078	682.09621
1080	499.45466
1082	389.57979
1084	61.54319
1086	38.41642
1088	249.26491
1090	706.15024
1092	780.10907
1094	748.17804
1096	506.39382
1098	206.79305
1100	20.41239
1102	-184.73219
1104	-2.62677
1106	11.76108
1108	360.464
1110	606.51349
1112	555.94105
1114	715.77817
1116	858.05632
1118	1195.80701
1120	1321.06172
1122	1288.85193
1124	803.20913
1126	703.16481
1128	484.75046
1130	243.99754
1132	381.93755
1134	225.57756
1136	426.92466
1138	355.96338
1140	74.67823
1142	-325.94625
1144	0.06699
1146	53.72759
1148	300.04521
1150	512.02411
1152	707.66856
1154	1066.98284
1156	1159.97121
1158	948.63795
1160	772.98732
1162	785.02358
1164	624.75101
1166	590.17386
1168	393.2964
1170	-139.8771
1172	21.65762
1174	-3.08119
1176	-84.07745
1178	260.68523
1180	-1.76833
1182	327.58665
1184	674.77516
1186	229.82217
1188	-40.24733
1190	103.56863
1192	235.27609
1194	180.87071
1196	310.32461
1198	71.59186
1200	48.62649
1202	201.37539
1204	28.7806
1206	220.76399
1208	481.24459
1210	857.11932
1212	707.28512
1214	829.63892
1216	719.07765
1218	474.49826
1220	485.79766
1222	277.87278
1224	230.62057
1226	144.93794
1228	123.69877
1230	-364.23757
1232	-178.02408
1234	-137.77733
1236	-52.59609
1238	-221.56535
1240	-41.76484
1242	379.74787
1244	11.91936
1246	-47.30376
1248	-456.97609
1250	-497.14747
1252	-280.82209
1254	169.04561
1256	218.52927
1258	635.6856
1260	712.54949
1262	925.1558
1264	1324.53941
1266	1194.7352
1268	1192.77802
1270	1524.70276
1272	1401.54427
1274	976.33743
1276	285.11711
1278	93.91816
1280	16.74693
1282	-106.3996
1284	-385.52616
1286	225.37319
1288	916.34292
1290	1391.40497
1292	1267.58129
1294	1405.89381
1296	1763.36446
1298	1689.0152
1300	1460.86795
1302	2033.94464
1304	2940.26721
1306	3495.85759
1308	3444.7377
1310	3614.92947
1312	3681.45481
1314	3523.33564
1316	3567.59388
1318	3133.25144
1320	3153.33021
1322	3080.8521
1324	2932.83901
1326	3115.31284
1328	3430.29547
1330	3561.80881
1332	3665.87473
1334	3666.51512
1336	3530.75186
1338	3621.60682
1340	3788.10187
1342	4401.25889
1344	5284.09974
1346	5933.64627
1348	6159.92035
1350	5868.94382
1352	5881.73853
1354	5708.3263
1356	5402.72899
1358	4839.9684
1360	4779.06636
1362	4702.04468
1364	4726.92518
1366	4749.72965
1368	4705.47991
1370	5055.19775
1372	4830.90495
1374	4761.62331
1376	5240.37461
1378	5429.18062
1380	5191.06312
1382	4726.04386
1384	4681.14462
1386	4362.38715
1388	3640.7932
1390	3401.38451
1392	3364.18284
1394	3376.20992
1396	3330.48748
1398	3422.03727
1400	3172.88101
1402	3145.04043
1404	2951.53725
1406	2773.39319
1408	3145.62997
1410	2959.2693
1412	2819.33291
1414	2611.84248
1416	2876.81974
1418	2911.28637
1420	2928.2641
1422	3011.7746
1424	3208.83958
1426	3379.48072
1428	2926.71972
1430	2121.57826
1432	2008.07802
1434	2106.24068
1436	2111.08791
1438	1818.64141
1440	2000.92283
1442	1988.95385
1444	1924.75614
1446	927.35137
1448	630.7612
1450	1114.00729
1452	1183.11132
1454	1033.09495
1456	1398.97983
1458	1497.78763
1460	1106.54001
1462	1332.25862
1464	931.96512
1466	669.68117
1468	789.42843
1470	115.22854
1472	-25.89684
1474	372.06242
1476	447.11904
1478	732.24853
1480	1574.42641
1482	1894.6282
1484	1607.82939
1486	1299.00551
1488	792.13206
1490	244.18454
1492	-228.86153
1494	-254.05507
1496	-101.42211
1498	68.03674
1500	508.33098
1502	188.46335
1504	-32.56344
1506	39.23448
1508	125.84423
1510	331.24902
1512	1044.41947
1514	1721.32619
1516	1646.93981
1518	1613.23095
1520	792.17021
1522	176.7282
1524	-372.12445
1526	-122.43481
1528	385.78727
1530	759.54419
1532	1652.83834
1534	1773.67212
1536	1758.04791
1538	891.96812
1540	143.43511
1542	308.4513
1544	-276.99529
1546	145.08339
1548	531.70309
1550	802.86504
1552	972.57048
1554	973.82063
1556	844.61674
1558	1156.96003
1560	1226.85174
1562	538.29309
1564	736.28532
1566	784.82964
1568	109.9273
1570	157.57951
1572	78.77651
1574	-302.50723
1576	320.6949
1578	605.37974
1580	538.54414
1582	756.18496
1584	682.29902
1586	1466.8832
1588	2091.93432
1590	2508.44923
1592	2055.42479
1594	2922.85782
1596	2479.74516
1598	2534.08365
1600	2577.87013
1602	2851.10142
1604	4086.77435
1606	4528.88574
1608	4952.43241
1610	4115.41119
1612	4043.81888
1614	3145.65229
1616	3493.90822
1618	3284.58347
1620	3764.67483
1622	4296.17911
1624	4937.09309
1626	5120.41355
1628	5068.13727
1630	4633.26104
1632	3982.78161
1634	4185.69575
1636	3338.00024
1638	3571.69181
1640	4111.76723
1642	4125.22324
1644	4874.05659
1646	5396.26403
1648	5643.84229
1650	5481.7881
1652	5382.09818
1654	5450.76927
1656	5059.79806
1658	4803.18128
1660	4402.91563
1662	4303.9978
1664	3914.42449
1666	3959.1924
1668	3673.29821
1670	3890.73859
1672	3240.51025
1674	2785.60984
1676	2514.03404
1678	2305.77951
1680	1939.84294
1682	2802.22098
1684	3462.91029
1686	3576.90753
1688	3551.20937
1690	3540.81245
1692	3151.71342
1694	2433.90893
1696	2048.39563
1698	1472.17014
1700	2054.22911
1702	1617.56918
1704	2161.18699
1706	2114.07915
1708	2862.24231
1710	3735.6731
1712	3594.36813
1714	4147.32404
1716	3591.53744
1718	2897.00494
1720	1160.72316
1722	873.6887
1724	-322.10183
1726	195.34818
1728	177.06754
1730	72.06553
1732	1301.33374
1734	1741.85651
1736	2859.61824
1738	2143.60326
1740	3064.79596
1742	2399.18069
1744	2914.74181
1746	2759.46367
1748	1715.33062
1750	1468.32701
1752	1214.43719
1754	1512.64551
1756	506.93631
1758	239.29393
1760	605.70272
1762	851.12308
1764	1128.51543
1766	1484.84019
1768	2003.05776
1770	2072.12856
1772	1920.01299
1774	1668.67145
1776	1264.06435
1778	1358.15209
1780	782.89507
1782	885.25369
1784	1723.18834
1786	1854.65944
1788	864.62736
1790	873.05251
1792	606.89528
1794	396.11605
1796	-231.32477
1798	137.5332
1800	613.67348
1802	1382.06585
1804	1649.68007
1806	1788.48592
1808	1948.45315
1810	1882.55154
1812	1461.75084
1814	1287.02082
1816	1358.33124
1818	651.65185
1820	898.95241
1822	1619.20268
1824	2055.37241
1826	1799.43136
1828	1715.34928
1830	896.09591
1832	-120.35899
1834	108.95431
1836	-629.98238
1838	229.8018
1840	1514.34075
1842	1878.64538
1844	2866.72658
1846	2818.59526
1848	3415.26231
1850	3546.73864
1852	3251.03514
1854	1770.16269
1856	2207.13217
1858	2080.95449
1860	1823.64051
1862	1102.20111
1864	1213.64719
1866	1728.9896
1868	2227.23923
1870	2944.40695
1872	3347.50363
1874	4861.54014
1876	5856.52735
1878	5824.47612
1880	4337.3973
1882	4020.30174
1884	2709.20028
1886	2068.10377
1888	1842.02305
1890	1701.96894
1892	2714.95229
1894	3395.98393
1896	3555.07467
1898	2855.23536
1900	2893.47682
1902	2485.80985
1904	1292.24529
1906	1218.79394
1908	875.46662
1910	2263.27414
1912	2956.22731
1914	3310.33693
1916	3623.61382
1918	4268.06878
1920	4038.71261
1922	2807.55609
1924	2948.61003
1926	1865.8852
1928	2784.3924
1930	2905.1424
1932	3048.14598
1934	3223.41394
1936	4274.95702
1938	4277.78602
1940	4237.91169
1942	3765.3448
1944	3328.0961
1946	3456.17635
1948	2423.5963
1950	1586.3667
1952	1374.49829
1954	1328.00182
1956	1066.88803
1958	1651.16765
1960	1546.85144
1962	2576.95012
1964	3228.47444
1966	3746.43512
1968	4014.8429
1970	3955.70851
1972	3302.04267
1974	2842.85609
1976	2607.1595
1978	1642.9636
1980	1079.27911
1982	611.11674
1984	1416.48719
1986	1610.40116
1988	1695.86937
1990	2177.90253
1992	2631.51132
1994	3139.70645
1996	3731.49862
1998	3565.89853
2000	3822.91686
2002	4370.5643
2004	4136.85153
2006	3425.78924
2008	3173.38809
2010	2809.65876
2012	2330.61191
2014	1903.25822
2016	1624.60835
2018	1123.67294
2020	616.46268
2022	-119.0118
2024	46.26018
2026	1047.30117
2028	1667.1291
2030	2145.7619
2032	2497.2175
2034	2474.51384
2036	1981.66884
2038	1427.70041
2040	955.62649
2042	1323.46498
2044	1086.23382
2046	2188.95091
2048	2486.63417
2050	2663.30152
2052	2084.97087
2054	2435.66013
2056	2898.38719
2058	3169.16998
2060	2975.02638
2062	2701.9743
2064	2503.03163
2066	2135.21627
2068	1504.5461
2070	929.03901
2072	1753.7129
2074	2354.58564
2076	2396.67511
2078	2191.99921
2080	1617.5758
2082	1100.42277
2084	1120.55799
2086	1546.99933
2088	2603.76467
2090	3176.87188
2092	3171.33882
2094	3437.18337
2096	2953.42338
2098	2846.07672
2100	2539.16124
2102	2238.69479
2104	1820.69523
2106	1493.1804
2108	1089.16814
2110	919.67631
2112	593.72275
2114	1050.3253
2116	1586.50181
2118	1956.27011
2120	2892.64804
2122	3052.65345
2124	3037.30417
2126	3123.61802
2128	2524.61284
2130	1454.30646
2132	1883.7167
2134	1726.86137
2136	1450.75831
2138	1584.42532
2140	1166.88023
2142	1365.14084
2144	622.22498
2146	68.15046
2148	-178.06492
2150	-31.41015
2152	168.14357
2154	596.62818
2156	598.05881
2158	926.4506
2160	1551.81866
2162	1573.17814
2164	1273.54415
2166	1527.93183
2168	1236.35628
2170	343.83265
2172	672.37604
2174	373.9672
2176	1412.58685
2178	2482.21575
2180	3556.83463
2182	3657.42421
2184	3698.96523
2186	3208.43841
2188	2464.82447
2190	2152.10414
2192	1159.25814
2194	1474.26716
2196	1260.11193
2198	1466.77317
2200	1326.23157
2202	915.46785
2204	1215.46272
2206	1056.19688
2208	1251.65103
2210	849.8059
2212	1176.64216
2214	905.14054
2216	924.28172
2218	616.04641
2220	1050.41531
2222	1885.36912
2224	1697.88853
2226	2383.95425
2228	2780.54696
2230	2834.64735
2232	2461.23612
2234	1634.29395
2236	1421.80153
2238	1399.73953
2240	1503.08863
2242	1012.82953
2244	2403.94289
2246	3146.40939
2248	2921.2097
2250	2637.3245
2252	1792.73445
2254	1575.42022
2256	1082.36247
2258	1112.54187
2260	1150.93908
2262	1539.53475
2264	1970.30954
2266	1931.24412
2268	1890.31913
2270	1305.51524
2272	1042.81308
2274	420.19332
2276	157.6366
2278	-264.87643
2280	-86.38089
2282	815.11461
2284	1240.61005
2286	1266.10547
2288	1436.60086
2290	1395.09624
2292	1237.5916
2294	954.08696
2296	1045.58232
2298	1149.07767